TITLE	
DATA TYPE	
ORIGIN	JASCO
OWNER	
DATE	21/12/20
TIME	15:34:43
SPECTROMETER/DATA SYSTEM	JASCO Corp., V-550, Rev. 1.00
RESOLUTION	
DELTAX	-0.2
XUNITS	NANOMETERS
YUNITS	ABSORBANCE
FIRSTX	550.0000
LASTX	350.0000
NPOINTS	1001
FIRSTY	0.00063
MAXY	0.26972
MINY	0.00051
XYDATA
550.0000	0.00063
549.8000	0.00072
549.6000	0.0009
549.4000	0.00075
549.2000	0.00066
549.0000	0.00077
548.8000	0.00064
548.6000	0.00063
548.4000	0.00069
548.2000	0.00051
548.0000	0.00064
547.8000	0.00067
547.6000	0.00069
547.4000	0.00064
547.2000	0.00064
547.0000	0.00073
546.8000	0.00065
546.6000	0.00074
546.4000	0.00064
546.2000	0.00054
546.0000	0.00053
545.8000	0.00079
545.6000	0.00105
545.4000	0.00082
545.2000	0.00051
545.0000	0.00056
544.8000	0.00059
544.6000	0.00052
544.4000	0.00073
544.2000	0.00093
544.0000	0.00096
543.8000	0.0009
543.6000	0.00059
543.4000	0.00066
543.2000	0.00087
543.0000	0.00082
542.8000	0.00079
542.6000	0.00062
542.4000	0.00051
542.2000	0.00066
542.0000	0.00084
541.8000	0.00084
541.6000	0.00075
541.4000	0.00058
541.2000	0.00057
541.0000	0.00071
540.8000	0.0008
540.6000	0.00084
540.4000	0.00084
540.2000	0.00071
540.0000	0.00074
539.8000	0.00075
539.6000	0.00066
539.4000	0.00079
539.2000	0.00063
539.0000	0.00052
538.8000	0.00084
538.6000	0.00109
538.4000	0.00088
538.2000	0.00079
538.0000	0.00067
537.8000	0.00058
537.6000	0.0008
537.4000	0.0009
537.2000	0.0009
537.0000	0.00058
536.8000	0.00053
536.6000	0.00079
536.4000	0.001
536.2000	0.00097
536.0000	0.00065
535.8000	0.00064
535.6000	0.00076
535.4000	0.00085
535.2000	0.00088
535.0000	0.00084
534.8000	0.00101
534.6000	0.00085
534.4000	0.00092
534.2000	0.00098
534.0000	0.00071
533.8000	0.00072
533.6000	0.00088
533.4000	0.00074
533.2000	0.00079
533.0000	0.00088
532.8000	0.00066
532.6000	0.00099
532.4000	0.00125
532.2000	0.00115
532.0000	0.00084
531.8000	0.00074
531.6000	0.00093
531.4000	0.00113
531.2000	0.001
531.0000	0.00071
530.8000	0.00087
530.6000	0.0009
530.4000	0.00093
530.2000	0.00099
530.0000	0.00105
529.8000	0.00108
529.6000	0.00114
529.4000	0.00111
529.2000	0.00063
529.0000	0.00057
528.8000	0.00092
528.6000	0.0011
528.4000	0.00118
528.2000	0.00102
528.0000	0.00071
527.8000	0.00088
527.6000	0.00106
527.4000	0.00104
527.2000	0.00097
527.0000	0.00111
526.8000	0.00109
526.6000	0.00096
526.4000	0.00113
526.2000	0.00121
526.0000	0.00115
525.8000	0.00104
525.6000	0.00107
525.4000	0.00127
525.2000	0.00126
525.0000	0.00117
524.8000	0.00112
524.6000	0.00105
524.4000	0.00122
524.2000	0.00137
524.0000	0.00111
523.8000	0.00085
523.6000	0.00116
523.4000	0.00144
523.2000	0.00118
523.0000	0.00098
522.8000	0.00126
522.6000	0.00139
522.4000	0.00137
522.2000	0.00134
522.0000	0.00148
521.8000	0.00151
521.6000	0.00149
521.4000	0.00176
521.2000	0.00171
521.0000	0.00132
520.8000	0.00132
520.6000	0.00165
520.4000	0.00169
520.2000	0.00156
520.0000	0.00182
519.8000	0.00205
519.6000	0.00188
519.4000	0.00178
519.2000	0.00195
519.0000	0.00205
518.8000	0.00188
518.6000	0.00182
518.4000	0.0019
518.2000	0.00197
518.0000	0.00212
517.8000	0.00227
517.6000	0.00228
517.4000	0.00234
517.2000	0.00239
517.0000	0.00246
516.8000	0.00271
516.6000	0.0028
516.4000	0.00254
516.2000	0.00272
516.0000	0.00308
515.8000	0.00284
515.6000	0.00285
515.4000	0.00319
515.2000	0.00314
515.0000	0.00327
514.8000	0.00361
514.6000	0.0035
514.4000	0.00361
514.2000	0.00394
514.0000	0.0037
513.8000	0.00392
513.6000	0.00416
513.4000	0.00418
513.2000	0.00442
513.0000	0.00433
512.8000	0.00444
512.6000	0.00455
512.4000	0.00446
512.2000	0.00505
512.0000	0.0054
511.8000	0.0054
511.6000	0.00573
511.4000	0.00604
511.2000	0.00623
511.0000	0.00614
510.8000	0.00631
510.6000	0.00666
510.4000	0.0069
510.2000	0.00728
510.0000	0.00749
509.8000	0.00766
509.6000	0.00794
509.4000	0.00828
509.2000	0.00853
509.0000	0.00885
508.8000	0.0091
508.6000	0.00939
508.4000	0.00963
508.2000	0.0097
508.0000	0.01023
507.8000	0.01057
507.6000	0.0108
507.4000	0.01122
507.2000	0.0116
507.0000	0.01176
506.8000	0.01196
506.6000	0.01253
506.4000	0.01297
506.2000	0.01303
506.0000	0.01328
505.8000	0.01387
505.6000	0.01412
505.4000	0.01462
505.2000	0.01509
505.0000	0.01523
504.8000	0.01553
504.6000	0.01594
504.4000	0.01634
504.2000	0.0168
504.0000	0.01712
503.8000	0.01741
503.6000	0.01772
503.4000	0.01829
503.2000	0.01877
503.0000	0.0189
502.8000	0.01917
502.6000	0.01965
502.4000	0.02007
502.2000	0.02025
502.0000	0.02053
501.8000	0.02102
501.6000	0.02129
501.4000	0.02157
501.2000	0.02257
501.0000	0.02286
500.8000	0.02284
500.6000	0.0234
500.4000	0.02375
500.2000	0.024
500.0000	0.02426
499.8000	0.02475
499.6000	0.02499
499.4000	0.02525
499.2000	0.0257
499.0000	0.02585
498.8000	0.02629
498.6000	0.02658
498.4000	0.02676
498.2000	0.02736
498.0000	0.0276
497.8000	0.02777
497.6000	0.02819
497.4000	0.02849
497.2000	0.02878
497.0000	0.02913
496.8000	0.02942
496.6000	0.0295
496.4000	0.02989
496.2000	0.03022
496.0000	0.03035
495.8000	0.03088
495.6000	0.03156
495.4000	0.03157
495.2000	0.03157
495.0000	0.03189
494.8000	0.03237
494.6000	0.0328
494.4000	0.03282
494.2000	0.03307
494.0000	0.0335
493.8000	0.03383
493.6000	0.03415
493.4000	0.03434
493.2000	0.03481
493.0000	0.035
492.8000	0.03497
492.6000	0.03536
492.4000	0.03576
492.2000	0.03613
492.0000	0.03635
491.8000	0.03673
491.6000	0.03685
491.4000	0.03701
491.2000	0.03752
491.0000	0.03795
490.8000	0.03793
490.6000	0.03798
490.4000	0.03856
490.2000	0.03893
490.0000	0.03914
489.8000	0.03958
489.6000	0.0398
489.4000	0.03976
489.2000	0.04016
489.0000	0.04059
488.8000	0.04084
488.6000	0.04098
488.4000	0.04113
488.2000	0.04167
488.0000	0.04187
487.8000	0.04216
487.6000	0.04231
487.4000	0.0423
487.2000	0.04294
487.0000	0.04315
486.8000	0.04323
486.6000	0.04362
486.4000	0.0437
486.2000	0.04389
486.0000	0.04451
485.8000	0.04458
485.6000	0.04447
485.4000	0.04502
485.2000	0.04551
485.0000	0.04569
484.8000	0.0457
484.6000	0.04583
484.4000	0.04621
484.2000	0.04657
484.0000	0.04678
483.8000	0.04648
483.6000	0.04693
483.4000	0.0474
483.2000	0.04727
483.0000	0.04762
482.8000	0.04784
482.6000	0.04802
482.4000	0.0481
482.2000	0.04824
482.0000	0.04849
481.8000	0.04863
481.6000	0.04877
481.4000	0.04892
481.2000	0.04902
481.0000	0.04917
480.8000	0.04933
480.6000	0.04946
480.4000	0.04972
480.2000	0.04993
480.0000	0.04981
479.8000	0.05016
479.6000	0.05037
479.4000	0.05014
479.2000	0.0503
479.0000	0.05033
478.8000	0.05019
478.6000	0.05033
478.4000	0.05061
478.2000	0.05087
478.0000	0.05085
477.8000	0.05105
477.6000	0.0512
477.4000	0.05098
477.2000	0.05121
477.0000	0.05129
476.8000	0.05126
476.6000	0.05123
476.4000	0.05133
476.2000	0.05147
476.0000	0.05158
475.8000	0.05157
475.6000	0.05145
475.4000	0.05151
475.2000	0.05132
475.0000	0.05141
474.8000	0.05142
474.6000	0.05141
474.4000	0.05153
474.2000	0.05144
474.0000	0.05143
473.8000	0.05145
473.6000	0.05138
473.4000	0.05152
473.2000	0.05166
473.0000	0.05152
472.8000	0.05154
472.6000	0.05138
472.4000	0.05136
472.2000	0.0515
472.0000	0.05136
471.8000	0.05133
471.6000	0.05128
471.4000	0.05111
471.2000	0.05127
471.0000	0.05133
470.8000	0.05096
470.6000	0.05096
470.4000	0.05111
470.2000	0.05108
470.0000	0.05082
469.8000	0.05082
469.6000	0.05077
469.4000	0.05062
469.2000	0.05072
469.0000	0.05054
468.8000	0.05044
468.6000	0.0506
468.4000	0.05054
468.2000	0.0503
468.0000	0.05013
467.8000	0.05021
467.6000	0.05024
467.4000	0.04981
467.2000	0.04957
467.0000	0.04978
466.8000	0.04981
466.6000	0.04965
466.4000	0.04961
466.2000	0.04948
466.0000	0.04951
465.8000	0.04947
465.6000	0.04926
465.4000	0.0491
465.2000	0.04903
465.0000	0.04898
464.8000	0.04889
464.6000	0.04882
464.4000	0.04872
464.2000	0.04848
464.0000	0.04846
463.8000	0.04854
463.6000	0.04832
463.4000	0.04844
463.2000	0.04805
463.0000	0.04768
462.8000	0.0481
462.6000	0.04808
462.4000	0.0478
462.2000	0.04753
462.0000	0.04739
461.8000	0.04767
461.6000	0.04761
461.4000	0.04712
461.2000	0.04723
461.0000	0.04714
460.8000	0.047
460.6000	0.04693
460.4000	0.04676
460.2000	0.04682
460.0000	0.04666
459.8000	0.04656
459.6000	0.04681
459.4000	0.04672
459.2000	0.04639
459.0000	0.04636
458.8000	0.04643
458.6000	0.04619
458.4000	0.04602
458.2000	0.04605
458.0000	0.04594
457.8000	0.04604
457.6000	0.04601
457.4000	0.04584
457.2000	0.04565
457.0000	0.04548
456.8000	0.04561
456.6000	0.04552
456.4000	0.04546
456.2000	0.04549
456.0000	0.04554
455.8000	0.04537
455.6000	0.04493
455.4000	0.04511
455.2000	0.04538
455.0000	0.04514
454.8000	0.04493
454.6000	0.04493
454.4000	0.04489
454.2000	0.04486
454.0000	0.04494
453.8000	0.04485
453.6000	0.04452
453.4000	0.04457
453.2000	0.04472
453.0000	0.04465
452.8000	0.04456
452.6000	0.04478
452.4000	0.04468
452.2000	0.04425
452.0000	0.04442
451.8000	0.04439
451.6000	0.04414
451.4000	0.04424
451.2000	0.04448
451.0000	0.04456
450.8000	0.04424
450.6000	0.04405
450.4000	0.04413
450.2000	0.04422
450.0000	0.04434
449.8000	0.04411
449.6000	0.04395
449.4000	0.04397
449.2000	0.04385
449.0000	0.04408
448.8000	0.04423
448.6000	0.04407
448.4000	0.04408
448.2000	0.04416
448.0000	0.04437
447.8000	0.04439
447.6000	0.04427
447.4000	0.04407
447.2000	0.04408
447.0000	0.04453
446.8000	0.04465
446.6000	0.04461
446.4000	0.04476
446.2000	0.04482
446.0000	0.04491
445.8000	0.04508
445.6000	0.04531
445.4000	0.04529
445.2000	0.04529
445.0000	0.04563
444.8000	0.04581
444.6000	0.04584
444.4000	0.04599
444.2000	0.04635
444.0000	0.04644
443.8000	0.04633
443.6000	0.04663
443.4000	0.04674
443.2000	0.047
443.0000	0.04763
442.8000	0.04773
442.6000	0.04784
442.4000	0.04828
442.2000	0.04859
442.0000	0.04906
441.8000	0.0495
441.6000	0.0496
441.4000	0.04995
441.2000	0.05036
441.0000	0.05085
440.8000	0.05136
440.6000	0.05205
440.4000	0.05251
440.2000	0.0527
440.0000	0.05315
439.8000	0.05379
439.6000	0.05438
439.4000	0.05479
439.2000	0.05546
439.0000	0.05611
438.8000	0.05679
438.6000	0.05765
438.4000	0.05826
438.2000	0.05887
438.0000	0.05958
437.8000	0.06034
437.6000	0.06102
437.4000	0.06165
437.2000	0.06274
437.0000	0.06384
436.8000	0.06446
436.6000	0.0651
436.4000	0.06603
436.2000	0.06694
436.0000	0.06814
435.8000	0.06947
435.6000	0.07045
435.4000	0.07131
435.2000	0.07235
435.0000	0.07309
434.8000	0.074
434.6000	0.07534
434.4000	0.07645
434.2000	0.07789
434.0000	0.07922
433.8000	0.08018
433.6000	0.08146
433.4000	0.08279
433.2000	0.08421
433.0000	0.08554
432.8000	0.08659
432.6000	0.08806
432.4000	0.08941
432.2000	0.09059
432.0000	0.09223
431.8000	0.09366
431.6000	0.09509
431.4000	0.09659
431.2000	0.09802
431.0000	0.09968
430.8000	0.10117
430.6000	0.10233
430.4000	0.10375
430.2000	0.10543
430.0000	0.10706
429.8000	0.10872
429.6000	0.11014
429.4000	0.11189
429.2000	0.11336
429.0000	0.11445
428.8000	0.11627
428.6000	0.11809
428.4000	0.11954
428.2000	0.12102
428.0000	0.1227
427.8000	0.12428
427.6000	0.12573
427.4000	0.12747
427.2000	0.12952
427.0000	0.13112
426.8000	0.13225
426.6000	0.13367
426.4000	0.13547
426.2000	0.13728
426.0000	0.13878
425.8000	0.14026
425.6000	0.14164
425.4000	0.14298
425.2000	0.1447
425.0000	0.14624
424.8000	0.14775
424.6000	0.14937
424.4000	0.15111
424.2000	0.1526
424.0000	0.1539
423.8000	0.15533
423.6000	0.15688
423.4000	0.15846
423.2000	0.15959
423.0000	0.16101
422.8000	0.16268
422.6000	0.16407
422.4000	0.16551
422.2000	0.16693
422.0000	0.16826
421.8000	0.16939
421.6000	0.17081
421.4000	0.17226
421.2000	0.17353
421.0000	0.17475
420.8000	0.17607
420.6000	0.17748
420.4000	0.17864
420.2000	0.17964
420.0000	0.1811
419.8000	0.18238
419.6000	0.18317
419.4000	0.18443
419.2000	0.18564
419.0000	0.18654
418.8000	0.18764
418.6000	0.18896
418.4000	0.18982
418.2000	0.19095
418.0000	0.19217
417.8000	0.19296
417.6000	0.19419
417.4000	0.19514
417.2000	0.19564
417.0000	0.19694
416.8000	0.19825
416.6000	0.19909
416.4000	0.19998
416.2000	0.20084
416.0000	0.20165
415.8000	0.20292
415.6000	0.20395
415.4000	0.20455
415.2000	0.20549
415.0000	0.2065
414.8000	0.20744
414.6000	0.20862
414.4000	0.20941
414.2000	0.20999
414.0000	0.21102
413.8000	0.21208
413.6000	0.21295
413.4000	0.21382
413.2000	0.21467
413.0000	0.21559
412.8000	0.21668
412.6000	0.21765
412.4000	0.21865
412.2000	0.21954
412.0000	0.22004
411.8000	0.22077
411.6000	0.22175
411.4000	0.22285
411.2000	0.22383
411.0000	0.2248
410.8000	0.22579
410.6000	0.22659
410.4000	0.22778
410.2000	0.22884
410.0000	0.22946
409.8000	0.23043
409.6000	0.23154
409.4000	0.23219
409.2000	0.2329
409.0000	0.23406
408.8000	0.23523
408.6000	0.23621
408.4000	0.23707
408.2000	0.23788
408.0000	0.23885
407.8000	0.23978
407.6000	0.24076
407.4000	0.24161
407.2000	0.2426
407.0000	0.24379
406.8000	0.24474
406.6000	0.24538
406.4000	0.24609
406.2000	0.24708
406.0000	0.24776
405.8000	0.24879
405.6000	0.25007
405.4000	0.2507
405.2000	0.25146
405.0000	0.25238
404.8000	0.25317
404.6000	0.25385
404.4000	0.25471
404.2000	0.25535
404.0000	0.25597
403.8000	0.2572
403.6000	0.25793
403.4000	0.25832
403.2000	0.25903
403.0000	0.25962
402.8000	0.26008
402.6000	0.26062
402.4000	0.26157
402.2000	0.26243
402.0000	0.26275
401.8000	0.26319
401.6000	0.26384
401.4000	0.26436
401.2000	0.26465
401.0000	0.26512
400.8000	0.26573
400.6000	0.26585
400.4000	0.26623
400.2000	0.26702
400.0000	0.26741
399.8000	0.26763
399.6000	0.26786
399.4000	0.26807
399.2000	0.26807
399.0000	0.26839
398.8000	0.26881
398.6000	0.26862
398.4000	0.26866
398.2000	0.26915
398.0000	0.26933
397.8000	0.26932
397.6000	0.26947
397.4000	0.26962
397.2000	0.26962
397.0000	0.26972
396.8000	0.26962
396.6000	0.26947
396.4000	0.26938
396.2000	0.26913
396.0000	0.26915
395.8000	0.26895
395.6000	0.26875
395.4000	0.26849
395.2000	0.26811
395.0000	0.26776
394.8000	0.26764
394.6000	0.26749
394.4000	0.26719
394.2000	0.26685
394.0000	0.26659
393.8000	0.26621
393.6000	0.26594
393.4000	0.26587
393.2000	0.2652
393.0000	0.26471
392.8000	0.26474
392.6000	0.26435
392.4000	0.26377
392.2000	0.26344
392.0000	0.26295
391.8000	0.26267
391.6000	0.2623
391.4000	0.26186
391.2000	0.26132
391.0000	0.2608
390.8000	0.26048
390.6000	0.25996
390.4000	0.2596
390.2000	0.25901
390.0000	0.25848
389.8000	0.25836
389.6000	0.25768
389.4000	0.25728
389.2000	0.25673
389.0000	0.2559
388.8000	0.25553
388.6000	0.25529
388.4000	0.25493
388.2000	0.25415
388.0000	0.25357
387.8000	0.25301
387.6000	0.25273
387.4000	0.25253
387.2000	0.25177
387.0000	0.25113
386.8000	0.25096
386.6000	0.25051
386.4000	0.24978
386.2000	0.24908
386.0000	0.24847
385.8000	0.24793
385.6000	0.24761
385.4000	0.24734
385.2000	0.24664
385.0000	0.24591
384.8000	0.2456
384.6000	0.24517
384.4000	0.24434
384.2000	0.24355
384.0000	0.24298
383.8000	0.24274
383.6000	0.24247
383.4000	0.24175
383.2000	0.241
383.0000	0.24057
382.8000	0.24006
382.6000	0.23924
382.4000	0.23857
382.2000	0.2381
382.0000	0.23747
381.8000	0.23693
381.6000	0.23642
381.4000	0.23577
381.2000	0.2351
381.0000	0.23462
380.8000	0.23376
380.6000	0.23313
380.4000	0.23285
380.2000	0.23212
380.0000	0.23104
379.8000	0.23027
379.6000	0.22978
379.4000	0.22894
379.2000	0.22833
379.0000	0.22767
378.8000	0.22694
378.6000	0.22635
378.4000	0.22567
378.2000	0.22485
378.0000	0.22384
377.8000	0.22303
377.6000	0.22242
377.4000	0.22174
377.2000	0.22086
377.0000	0.22017
376.8000	0.21944
376.6000	0.21855
376.4000	0.21768
376.2000	0.21699
376.0000	0.21632
375.8000	0.21519
375.6000	0.21431
375.4000	0.2135
375.2000	0.2125
375.0000	0.21165
374.8000	0.21103
374.6000	0.21016
374.4000	0.20919
374.2000	0.20835
374.0000	0.2076
373.8000	0.20668
373.6000	0.20551
373.4000	0.2048
373.2000	0.204
373.0000	0.20306
372.8000	0.20218
372.6000	0.20118
372.4000	0.20042
372.2000	0.19964
372.0000	0.19819
371.8000	0.19714
371.6000	0.19634
371.4000	0.19545
371.2000	0.19452
371.0000	0.19347
370.8000	0.19307
370.6000	0.19226
370.4000	0.19118
370.2000	0.19037
370.0000	0.18875
369.8000	0.18814
369.6000	0.18759
369.4000	0.18661
369.2000	0.18546
369.0000	0.1848
368.8000	0.18408
368.6000	0.18303
368.4000	0.18217
368.2000	0.18136
368.0000	0.18061
367.8000	0.1797
367.6000	0.17875
367.4000	0.17791
367.2000	0.17722
367.0000	0.17658
366.8000	0.17568
366.6000	0.17483
366.4000	0.17415
366.2000	0.17329
366.0000	0.17225
365.8000	0.17166
365.6000	0.17107
365.4000	0.16995
365.2000	0.169
365.0000	0.16854
364.8000	0.16809
364.6000	0.16727
364.4000	0.16643
364.2000	0.16583
364.0000	0.165
363.8000	0.16409
363.6000	0.16331
363.4000	0.16254
363.2000	0.16188
363.0000	0.16152
362.8000	0.16101
362.6000	0.16038
362.4000	0.1598
362.2000	0.15887
362.0000	0.15805
361.8000	0.15736
361.6000	0.15686
361.4000	0.1561
361.2000	0.15514
361.0000	0.15472
360.8000	0.15395
360.6000	0.15344
360.4000	0.15303
360.2000	0.15238
360.0000	0.15154
359.8000	0.15078
359.6000	0.1504
359.4000	0.14984
359.2000	0.14916
359.0000	0.14877
358.8000	0.14849
358.6000	0.14792
358.4000	0.14724
358.2000	0.14685
358.0000	0.14639
357.8000	0.14574
357.6000	0.14507
357.4000	0.14417
357.2000	0.14363
357.0000	0.14356
356.8000	0.14318
356.6000	0.1426
356.4000	0.1422
356.2000	0.14151
356.0000	0.14106
355.8000	0.14058
355.6000	0.13979
355.4000	0.13946
355.2000	0.13902
355.0000	0.13837
354.8000	0.13846
354.6000	0.13845
354.4000	0.13767
354.2000	0.13712
354.0000	0.13678
353.8000	0.13627
353.6000	0.13577
353.4000	0.13537
353.2000	0.13512
353.0000	0.13501
352.8000	0.13483
352.6000	0.13436
352.4000	0.13393
352.2000	0.13364
352.0000	0.13315
351.8000	0.13297
351.6000	0.13274
351.4000	0.13233
351.2000	0.13202
351.0000	0.13183
350.8000	0.13144
350.6000	0.13109
350.4000	0.13091
350.2000	0.13054
350.0000	0.13036
