TITLE	
DATA TYPE	
ORIGIN	JASCO
OWNER	
DATE	21/12/20
TIME	15:25:33
SPECTROMETER/DATA SYSTEM	JASCO Corp., V-550, Rev. 1.00
RESOLUTION	
DELTAX	-0.2
XUNITS	NANOMETERS
YUNITS	ABSORBANCE
FIRSTX	550.0000
LASTX	350.0000
NPOINTS	1001
FIRSTY	-0.00013
MAXY	0.00033
MINY	-0.00059
XYDATA
550.0000	-0.00013
549.8000	-0.00019
549.6000	-7E-005
549.4000	5E-005
549.2000	0.0001
549.0000	-0.00023
548.8000	-0.00046
548.6000	-0.00025
548.4000	-0.00017
548.2000	-0.00015
548.0000	-0.00011
547.8000	-0.00044
547.6000	-0.00038
547.4000	-0.00024
547.2000	-0.00016
547.0000	-2E-005
546.8000	-0.00026
546.6000	-0.00021
546.4000	-0.00014
546.2000	-0.0005
546.0000	-0.00033
545.8000	9E-005
545.6000	7E-005
545.4000	-6E-005
545.2000	-0.00015
545.0000	-7E-005
544.8000	-0.00019
544.6000	-0.00033
544.4000	-0.00012
544.2000	-0.00016
544.0000	-0.00029
543.8000	-0.00018
543.6000	-0.00028
543.4000	-0.0002
543.2000	2E-005
543.0000	-0.00011
542.8000	-0.00017
542.6000	-5E-005
542.4000	-5E-005
542.2000	-0.0003
542.0000	-0.00016
541.8000	-9.99998E-006
541.6000	-5E-005
541.4000	-0.00012
541.2000	-0.00027
541.0000	-0.00016
540.8000	-0.00017
540.6000	-0.00011
540.4000	-7E-005
540.2000	-0.00011
540.0000	-0.00019
539.8000	-0.00038
539.6000	-0.00024
539.4000	-7E-005
539.2000	-0.00036
539.0000	-0.00052
538.8000	-0.00019
538.6000	0.0001
538.4000	-3E-005
538.2000	-0.00035
538.0000	-0.00041
537.8000	-0.00022
537.6000	-6E-005
537.4000	-7E-005
537.2000	-6E-005
537.0000	-0.00023
536.8000	-0.00053
536.6000	-0.00032
536.4000	2E-005
536.2000	-0.00011
536.0000	-0.00032
535.8000	-0.00038
535.6000	-0.00028
535.4000	-0.00014
535.2000	-0.00018
535.0000	-0.00038
534.8000	-0.0002
534.6000	-7E-005
534.4000	-0.00018
534.2000	3E-005
534.0000	-3E-005
533.8000	-0.00035
533.6000	-0.0001
533.4000	-5E-005
533.2000	-0.0002
533.0000	-0.00019
532.8000	-0.00027
532.6000	6E-005
532.4000	0.00023
532.2000	9E-005
532.0000	-0.00016
531.8000	-0.00022
531.6000	-0.0002
531.4000	-0.00016
531.2000	-0.00023
531.0000	-0.00025
530.8000	-0.00015
530.6000	-0.00037
530.4000	-0.00029
530.2000	3.87058E-011
530.0000	-7E-005
529.8000	-0.00016
529.6000	4.31016E-011
529.4000	-0.00011
529.2000	-0.00025
529.0000	-0.00018
528.8000	-0.00011
528.6000	-0.0001
528.4000	-0.00021
528.2000	1E-005
528.0000	-0.00015
527.8000	-0.00036
527.6000	-0.00026
527.4000	-0.00015
527.2000	0.00011
527.0000	-2E-005
526.8000	-7E-005
526.6000	-0.00019
526.4000	-0.00025
526.2000	-0.00011
526.0000	-0.00022
525.8000	-2E-005
525.6000	0.00013
525.4000	-0.00017
525.2000	-0.00046
525.0000	-0.0005
524.8000	-0.00031
524.6000	-0.00026
524.4000	-0.00022
524.2000	-0.00021
524.0000	-0.00034
523.8000	-0.00045
523.6000	-0.00025
523.4000	-0.0001
523.2000	-0.00022
523.0000	-0.00021
522.8000	-0.00014
522.6000	-0.00025
522.4000	-0.00028
522.2000	-0.00034
522.0000	-0.00025
521.8000	-8E-005
521.6000	-0.00016
521.4000	9.99999E-005
521.2000	-0.0001
521.0000	-0.00055
520.8000	-0.00041
520.6000	-0.00011
520.4000	-0.00014
520.2000	-0.00019
520.0000	-0.0001
519.8000	-0.00019
519.6000	-0.00012
519.4000	-0.00013
519.2000	-9.99996E-006
519.0000	-5E-005
518.8000	-0.00026
518.6000	-0.00017
518.4000	-0.00022
518.2000	-0.0002
518.0000	0.00026
517.8000	0.0001
517.6000	-0.00027
517.4000	-3E-005
517.2000	3E-005
517.0000	-0.00014
516.8000	-4E-005
516.6000	1E-005
516.4000	-0.00026
516.2000	-0.00026
516.0000	1E-005
515.8000	-0.00011
515.6000	-3E-005
515.4000	0.00012
515.2000	-0.00026
515.0000	-0.00015
514.8000	9E-005
514.6000	-0.00041
514.4000	-0.00027
514.2000	8E-005
514.0000	-0.00021
513.8000	0.00013
513.6000	6E-005
513.4000	-0.00029
513.2000	-0.00012
513.0000	-0.0001
512.8000	-0.00027
512.6000	-0.00059
512.4000	-0.00052
512.2000	2E-005
512.0000	-0.0001
511.8000	-0.00024
511.6000	-7E-005
511.4000	-0.00027
511.2000	-4E-005
511.0000	-2E-005
510.8000	-0.0003
510.6000	-0.00025
510.4000	2E-005
510.2000	-7E-005
510.0000	-0.0003
509.8000	-0.00015
509.6000	-6E-005
509.4000	-8E-005
509.2000	-0.00021
509.0000	-0.00018
508.8000	-0.00019
508.6000	-6E-005
508.4000	-0.00011
508.2000	-0.00021
508.0000	-0.0001
507.8000	-0.00012
507.6000	-3E-005
507.4000	-0.00014
507.2000	0.00011
507.0000	6E-005
506.8000	-0.00036
506.6000	-0.00016
506.4000	-0.00014
506.2000	-0.00027
506.0000	-0.00018
505.8000	9.49949E-011
505.6000	-0.00017
505.4000	-0.00027
505.2000	-5.00001E-005
505.0000	-0.00016
504.8000	-0.00029
504.6000	-0.00017
504.4000	-0.00012
504.2000	1.99999E-005
504.0000	1.00001E-005
503.8000	-4.00001E-005
503.6000	2E-005
503.4000	8E-005
503.2000	8.00001E-005
503.0000	-0.00018
502.8000	-0.00038
502.6000	-8.99999E-005
502.4000	-5.99999E-005
502.2000	-0.00034
502.0000	-0.00041
501.8000	-0.00025
501.6000	-0.00012
501.4000	-1.00001E-005
501.2000	0.0002
501.0000	0.00012
500.8000	-3E-005
500.6000	6.00001E-005
500.4000	0.00016
500.2000	2E-005
500.0000	-0.00021
499.8000	-0.00012
499.6000	-0.00019
499.4000	-0.00031
499.2000	-0.00011
499.0000	5E-005
498.8000	0.00016
498.6000	-0.00021
498.4000	-0.0003
498.2000	-6.99999E-005
498.0000	-0.00024
497.8000	-0.00025
497.6000	-0.00013
497.4000	-6E-005
497.2000	-9.24617E-011
497.0000	-1.99999E-005
496.8000	4E-005
496.6000	-0.00023
496.4000	-0.0002
496.2000	-0.00027
496.0000	-0.00044
495.8000	-0.00022
495.6000	-4.26918E-011
495.4000	-1E-005
495.2000	-0.00036
495.0000	-0.00039
494.8000	-0.00011
494.6000	8E-005
494.4000	3E-005
494.2000	-0.00043
494.0000	-0.00043
493.8000	-0.00016
493.6000	-0.00014
493.4000	-0.0002
493.2000	-0.00015
493.0000	-0.00014
492.8000	-0.00029
492.6000	-0.00033
492.4000	-0.00018
492.2000	-2.99999E-005
492.0000	-0.00013
491.8000	2.46614E-011
491.6000	-0.0001
491.4000	-0.00027
491.2000	-0.00033
491.0000	3.99999E-005
490.8000	0.00012
490.6000	-0.00027
490.4000	-0.00022
490.2000	-0.00021
490.0000	-0.00018
489.8000	-0.0001
489.6000	-9.00001E-005
489.4000	-0.00036
489.2000	-0.00035
489.0000	8.3223E-011
488.8000	9.99999E-006
488.6000	-0.00029
488.4000	-0.0003
488.2000	-4.00001E-005
488.0000	-0.00011
487.8000	-9.54419E-011
487.6000	-0.00012
487.4000	-0.00043
487.2000	-0.00024
487.0000	-6.99999E-005
486.8000	-9.00001E-005
486.6000	-0.00013
486.4000	-0.00011
486.2000	-0.00011
486.0000	-4.00001E-005
485.8000	-0.00022
485.6000	-0.00026
485.4000	-8E-005
485.2000	-0.00018
485.0000	-4.99999E-005
484.8000	-0.00011
484.6000	-0.00039
484.4000	-0.00025
484.2000	2.00001E-005
484.0000	-0.00012
483.8000	-0.00043
483.6000	-0.00018
483.4000	0.00012
483.2000	-4E-005
483.0000	-0.00027
482.8000	-0.00023
482.6000	9.9999E-006
482.4000	-9E-005
482.2000	-2E-005
482.0000	-8E-005
481.8000	-0.00034
481.6000	-0.0003
481.4000	-6E-005
481.2000	-4E-005
481.0000	-9E-005
480.8000	3E-005
480.6000	-8E-005
480.4000	-6.76513E-011
480.2000	-9.9999E-006
480.0000	-0.00026
479.8000	-9.00001E-005
479.6000	-0.00014
479.4000	-0.00038
479.2000	-0.00029
479.0000	-0.00024
478.8000	-0.0001
478.6000	-0.00011
478.4000	-0.00012
478.2000	-6E-005
478.0000	-0.00022
477.8000	-4.00001E-005
477.6000	-5.00001E-005
477.4000	-0.00016
477.2000	-0.00015
477.0000	-0.00016
476.8000	-0.00017
476.6000	-0.00022
476.4000	4.00001E-005
476.2000	0.00014
476.0000	-2.98023E-013
475.8000	-8.08388E-011
475.6000	-3.00001E-005
475.4000	-0.00027
475.2000	-0.00021
475.0000	-5.00001E-005
474.8000	-0.00031
474.6000	-0.00028
474.4000	3.99999E-005
474.2000	-5E-005
474.0000	-5E-005
473.8000	-0.00017
473.6000	-0.00028
473.4000	-0.00026
473.2000	-7.99999E-005
473.0000	-8E-005
472.8000	-0.0003
472.6000	-0.00017
472.4000	-0.00015
472.2000	-9E-005
472.0000	-2E-005
471.8000	-9.99999E-006
471.6000	-2.99999E-005
471.4000	-9.99997E-006
471.2000	-2.99999E-005
471.0000	-0.00017
470.8000	-0.00027
470.6000	-0.00012
470.4000	-0.0001
470.2000	-2E-005
470.0000	-0.00015
469.8000	-0.00024
469.6000	-0.00022
469.4000	-0.00019
469.2000	-0.00015
469.0000	-0.00022
468.8000	-0.0002
468.6000	4.99999E-005
468.4000	0.00019
468.2000	2.00001E-005
468.0000	-7.99999E-005
467.8000	-0.00034
467.6000	-0.00013
467.4000	9.99991E-006
467.2000	-0.00034
467.0000	-8E-005
466.8000	0.00016
466.6000	-4.99999E-005
466.4000	-0.00013
466.2000	-0.0001
466.0000	-7E-005
465.8000	-0.00025
465.6000	-0.00023
465.4000	-0.00028
465.2000	-0.00031
465.0000	-7.00001E-005
464.8000	0.00016
464.6000	0.00012
464.4000	-5.00001E-005
464.2000	-0.00016
464.0000	-0.00024
463.8000	-0.00012
463.6000	-0.00038
463.4000	-0.00021
463.2000	-0.00012
463.0000	-0.0003
462.8000	-0.0002
462.6000	-0.00032
462.4000	-0.00015
462.2000	-0.00013
462.0000	-0.00028
461.8000	2.00001E-005
461.6000	7.99999E-005
461.4000	-0.00031
461.2000	-0.00053
461.0000	-0.00042
460.8000	-0.00019
460.6000	-0.0002
460.4000	-4.99999E-005
460.2000	-8.00002E-005
460.0000	-0.00041
459.8000	-0.00035
459.6000	-8.00002E-005
459.4000	-2.00002E-005
459.2000	-0.00024
459.0000	-0.00023
458.8000	-0.00025
458.6000	-0.0005
458.4000	-0.0003
458.2000	-0.0001
458.0000	-0.00022
457.8000	-0.00021
457.6000	-0.00013
457.4000	-0.00012
457.2000	-0.00027
457.0000	-0.00048
456.8000	-0.00036
456.6000	-7.00002E-005
456.4000	-0.00011
456.2000	-0.00031
456.0000	-0.00014
455.8000	-0.00023
455.6000	-0.00029
455.4000	-6.00002E-005
455.2000	-5.99999E-005
455.0000	-0.0002
454.8000	-0.00019
454.6000	-0.0001
454.4000	-0.00021
454.2000	-0.00022
454.0000	-0.00014
453.8000	-6.00001E-005
453.6000	-0.00012
453.4000	-0.00022
453.2000	-0.00022
453.0000	-8E-005
452.8000	-7.00001E-005
452.6000	-0.0002
452.4000	-0.0003
452.2000	-0.00034
452.0000	-2E-005
451.8000	-2.00001E-005
451.6000	-0.00038
451.4000	-6E-005
451.2000	0.00015
451.0000	-0.00016
450.8000	-4.99999E-005
450.6000	-0.0001
450.4000	-0.00014
450.2000	0.0001
450.0000	-0.00018
449.8000	-0.00041
449.6000	-0.00042
449.4000	-0.00032
449.2000	-0.00021
449.0000	1.00002E-005
448.8000	-4.00002E-005
448.6000	-0.00019
448.4000	-0.00011
448.2000	-0.00013
448.0000	-0.00025
447.8000	-0.00035
447.6000	-9.99998E-005
447.4000	-0.00043
447.2000	-0.0005
447.0000	0.00015
446.8000	0.00023
446.6000	-0.00018
446.4000	-0.0001
446.2000	2E-005
446.0000	-0.00027
445.8000	-0.00027
445.6000	-4.00001E-005
445.4000	-4.99998E-005
445.2000	-0.0002
445.0000	0.0001
444.8000	7E-005
444.6000	4.05312E-011
444.4000	-0.00019
444.2000	-0.00019
444.0000	-0.00014
443.8000	-0.00038
443.6000	-0.0001
443.4000	-0.00029
443.2000	-0.00046
443.0000	-0.00022
442.8000	-0.00018
442.6000	-0.00019
442.4000	-0.00015
442.2000	-0.00011
442.0000	0.00019
441.8000	0.00017
441.6000	-0.00031
441.4000	-0.00028
441.2000	-0.00029
441.0000	-0.00037
440.8000	-0.00031
440.6000	-5.99998E-005
440.4000	-9.99988E-006
440.2000	-0.00025
440.0000	-3.99998E-005
439.8000	-0.00021
439.6000	-0.00041
439.4000	-0.00023
439.2000	-0.00043
439.0000	-0.00045
438.8000	-0.00019
438.6000	-5.00002E-005
438.4000	-0.00021
438.2000	-0.0002
438.0000	9.99989E-006
437.8000	-5E-005
437.6000	-0.0003
437.4000	-0.00041
437.2000	-0.0002
437.0000	-0.00012
436.8000	-5.99999E-005
436.6000	-0.00016
436.4000	-0.00035
436.2000	-0.00032
436.0000	-0.00016
435.8000	-6.00001E-005
435.6000	-3E-005
435.4000	1.66446E-010
435.2000	-9.99998E-005
435.0000	-0.00038
434.8000	-0.00017
434.6000	-0.00015
434.4000	-0.00043
434.2000	-1.00002E-005
434.0000	-5.99999E-005
433.8000	-0.00027
433.6000	-3.00001E-005
433.4000	-8.00002E-005
433.2000	-0.00019
433.0000	-3E-005
432.8000	-0.00014
432.6000	-0.00025
432.4000	-0.00022
432.2000	-0.00025
432.0000	-2.00001E-005
431.8000	-0.00019
431.6000	-0.00019
431.4000	-9.99991E-006
431.2000	-5.99999E-005
431.0000	-8.00001E-005
430.8000	-0.00018
430.6000	-0.00031
430.4000	-0.00024
430.2000	-5.00002E-005
430.0000	-3E-005
429.8000	2.00001E-005
429.6000	4.00002E-005
429.4000	0.00015
429.2000	4.00002E-005
429.0000	-0.00025
428.8000	-0.00025
428.6000	-9.9998E-006
428.4000	-3E-005
428.2000	-0.00032
428.0000	-0.00042
427.8000	-0.00052
427.6000	-0.00032
427.4000	3.99999E-005
427.2000	7.99999E-005
427.0000	-6.00002E-005
426.8000	-0.00014
426.6000	-0.00013
426.4000	-5E-005
426.2000	-0.00013
426.0000	-9.99999E-005
425.8000	-1.99998E-005
425.6000	-0.00033
425.4000	-0.00028
425.2000	-0.0001
425.0000	-0.00017
424.8000	-0.00023
424.6000	-5.00002E-005
424.4000	3.99999E-005
424.2000	6E-005
424.0000	-0.0001
423.8000	-0.00023
423.6000	-2.99999E-005
423.4000	-0.0001
423.2000	-0.00049
423.0000	-0.00036
422.8000	-0.00015
422.6000	-0.0003
422.4000	-0.00032
422.2000	-0.00012
422.0000	-9.99999E-005
421.8000	-0.00013
421.6000	-3.00001E-005
421.4000	-0.00019
421.2000	-0.00031
421.0000	-0.00024
420.8000	5.99998E-005
420.6000	0.00016
420.4000	-7.00002E-005
420.2000	-5.00001E-005
420.0000	-0.00019
419.8000	-0.0001
419.6000	7.00001E-005
419.4000	6.99998E-005
419.2000	-0.00028
419.0000	-0.00042
418.8000	-0.00033
418.6000	-9.00001E-005
418.4000	-0.0001
418.2000	-0.00016
418.0000	1.63466E-010
417.8000	-0.00011
417.6000	-8.99998E-005
417.4000	-0.00014
417.2000	-0.00052
417.0000	-0.00025
416.8000	-6.00002E-005
416.6000	-2.00001E-005
416.4000	2.99999E-005
416.2000	-0.00026
416.0000	-0.00039
415.8000	-0.00016
415.6000	-0.00011
415.4000	-0.00034
415.2000	-0.00044
415.0000	-8.00001E-005
414.8000	-0.00013
414.6000	-0.00017
414.4000	0.00012
414.2000	-3.00002E-005
414.0000	-0.00011
413.8000	-0.00023
413.6000	-0.00039
413.4000	-0.00028
413.2000	-0.00018
413.0000	-0.00042
412.8000	-0.00011
412.6000	0.00015
412.4000	9.00001E-005
412.2000	-1.99998E-005
412.0000	-0.00033
411.8000	-0.00041
411.6000	-0.00059
411.4000	-0.00032
411.2000	-0.00012
411.0000	-0.00019
410.8000	-0.00014
410.6000	-0.00028
410.4000	-0.00025
410.2000	1.95652E-010
410.0000	6.99999E-005
409.8000	-9E-005
409.6000	3.99999E-005
409.4000	-0.00017
409.2000	-0.0004
409.0000	-0.00016
408.8000	-0.00017
408.6000	-0.00025
408.4000	-0.00043
408.2000	-0.00034
408.0000	-4.99999E-005
407.8000	-0.00014
407.6000	-0.00021
407.4000	1.00002E-005
407.2000	0.00011
407.0000	-0.00013
406.8000	-2.00001E-005
406.6000	6E-005
406.4000	-0.00025
406.2000	-0.00043
406.0000	-0.00041
405.8000	-9E-005
405.6000	0.0002
405.4000	-1.99999E-005
405.2000	9.99992E-006
405.0000	-2.00001E-005
404.8000	-0.00036
404.6000	-0.00027
404.4000	-0.00017
404.2000	-7.99999E-005
404.0000	-9.99997E-006
403.8000	4.00002E-005
403.6000	-9.99998E-005
403.4000	-0.00018
403.2000	-5.99998E-005
403.0000	-4.00001E-005
402.8000	-0.00014
402.6000	-0.00016
402.4000	-0.00022
402.2000	-0.00032
402.0000	-0.00013
401.8000	0.00013
401.6000	0.00028
401.4000	9.00001E-005
401.2000	-6.99999E-005
401.0000	4.99999E-005
400.8000	-1.99998E-005
400.6000	-0.00024
400.4000	-0.00032
400.2000	-0.00011
400.0000	0.00021
399.8000	0.0002
399.6000	6.99999E-005
399.4000	-7.99999E-005
399.2000	-0.00017
399.0000	-3.00002E-005
398.8000	5.00002E-005
398.6000	-0.00027
398.4000	-0.00034
398.2000	-3.99998E-005
398.0000	0.00027
397.8000	0.00023
397.6000	-0.00015
397.4000	-4.99998E-005
397.2000	0.00017
397.0000	-6.99996E-005
396.8000	4.99999E-005
396.6000	9.00004E-005
396.4000	-0.00018
396.2000	-0.00028
396.0000	-0.00035
395.8000	-0.00013
395.6000	-4.75347E-011
395.4000	-5E-005
395.2000	-2E-005
395.0000	-0.00018
394.8000	-6E-005
394.6000	0.00018
394.4000	-1.99999E-005
394.2000	-0.00015
394.0000	-0.00015
393.8000	-0.00044
393.6000	-0.00036
393.4000	6.00002E-005
393.2000	-4.99998E-005
393.0000	-0.0002
392.8000	-0.00021
392.6000	2.00001E-005
392.4000	0.00025
392.2000	9.99999E-005
392.0000	-6.00002E-005
391.8000	8E-005
391.6000	7.00001E-005
391.4000	-9.00001E-005
391.2000	-9.00001E-005
391.0000	-5E-005
390.8000	-0.00028
390.6000	-0.00029
390.4000	9.99986E-006
390.2000	0.00017
390.0000	0.00024
389.8000	8.00002E-005
389.6000	-4.00002E-005
389.4000	0.00022
389.2000	6.99998E-005
389.0000	-0.00036
388.8000	-0.00037
388.6000	-3.99999E-005
388.4000	5.00002E-005
388.2000	-0.00017
388.0000	-0.00022
387.8000	-0.00033
387.6000	-5.00002E-005
387.4000	0.00032
387.2000	-9.99998E-005
387.0000	-0.00034
386.8000	0.00015
386.6000	0.00027
386.4000	-0.00013
386.2000	-0.00022
386.0000	-0.00019
385.8000	-0.00041
385.6000	-0.00033
385.4000	7.00001E-005
385.2000	0.00016
385.0000	-0.00029
384.8000	-0.00022
384.6000	0.00033
384.4000	0.00018
384.2000	-0.00026
384.0000	-0.00045
383.8000	-0.00015
383.6000	0.00015
383.4000	-0.00017
383.2000	-0.00013
383.0000	8.00001E-005
382.8000	-3E-005
382.6000	-0.00035
382.4000	-0.00027
382.2000	-2.99999E-005
382.0000	-0.00016
381.8000	-5.99998E-005
381.6000	-0.0001
381.4000	-8.99999E-005
381.2000	-0.00011
381.0000	-0.00029
380.8000	-0.00049
380.6000	-0.00017
380.4000	3.99998E-005
380.2000	3.99999E-005
380.0000	-3.00001E-005
379.8000	-0.00022
379.6000	-0.0001
379.4000	-0.00025
379.2000	-0.00012
379.0000	-0.0002
378.8000	-0.00043
378.6000	-0.00027
378.4000	-0.0001
378.2000	-0.0001
378.0000	-6.99999E-005
377.8000	-3.00002E-005
377.6000	-6.99998E-005
377.4000	-0.00012
377.2000	-0.00013
377.0000	-0.00018
376.8000	-0.00017
376.6000	3.00001E-005
376.4000	7.99999E-005
376.2000	9.99994E-006
376.0000	-6.99999E-005
375.8000	-0.00018
375.6000	-0.0001
375.4000	-0.00027
375.2000	-0.0004
375.0000	-0.0002
374.8000	6.99999E-005
374.6000	-9.99977E-006
374.4000	-0.00032
374.2000	-6.99999E-005
374.0000	0.00016
373.8000	3.00001E-005
373.6000	-0.00011
373.4000	-0.00011
373.2000	-0.00034
373.0000	-0.0004
372.8000	2.04295E-010
372.6000	0.00019
372.4000	2.99999E-005
372.2000	-0.00015
372.0000	-0.00049
371.8000	-0.00056
371.6000	-0.00034
371.4000	-0.00018
371.2000	-5.99998E-005
371.0000	-0.00032
370.8000	-0.00032
370.6000	-0.00014
370.4000	-0.00012
370.2000	-0.00019
370.0000	-0.00027
369.8000	-0.00016
369.6000	2.00004E-005
369.4000	-0.00021
369.2000	-0.0004
369.0000	-0.00024
368.8000	-2.99998E-005
368.6000	-0.00014
368.4000	2E-005
368.2000	-3.00001E-005
368.0000	2.00001E-005
367.8000	-5.00003E-005
367.6000	-0.0002
367.4000	-5.99996E-005
367.2000	2.00004E-005
367.0000	9.00004E-005
366.8000	-8.00002E-005
366.6000	-0.00034
366.4000	-0.00041
366.2000	-0.00035
366.0000	-0.00041
365.8000	-0.00021
365.6000	-2.00001E-005
365.4000	-0.00024
365.2000	-0.00057
365.0000	-0.00055
364.8000	-4.4018E-010
364.6000	0.00012
364.4000	-0.00024
364.2000	-0.00014
364.0000	0.00017
363.8000	-0.0002
363.6000	-0.00032
363.4000	-9.99998E-005
363.2000	-0.00016
363.0000	-0.00023
362.8000	-0.00028
362.6000	-2.99996E-005
362.4000	-6.99998E-005
362.2000	-8.00001E-005
362.0000	-0.00013
361.8000	-0.0002
361.6000	-2.52724E-010
361.4000	-0.00016
361.2000	-0.00036
361.0000	-0.00033
360.8000	-4.00004E-005
360.6000	7.00004E-005
360.4000	5E-005
360.2000	0.00017
360.0000	-5.00005E-005
359.8000	-0.00043
359.6000	-0.0004
359.4000	-0.00039
359.2000	-0.00021
359.0000	-6.00003E-005
358.8000	-0.00011
358.6000	0.00014
358.4000	0.00026
358.2000	0.00018
358.0000	0.00013
357.8000	-0.00013
357.6000	-0.00053
357.4000	-0.00049
357.2000	-0.00017
357.0000	7.99996E-005
356.8000	-3.99999E-005
356.6000	-0.00016
356.4000	0.00017
356.2000	0.00013
356.0000	-0.00027
355.8000	-0.00035
355.6000	-0.00035
355.4000	-0.00017
355.2000	4.00001E-005
355.0000	-9.99976E-006
354.8000	-2.99999E-005
354.6000	-0.00025
354.4000	-0.00045
354.2000	-6.99997E-005
354.0000	0.00012
353.8000	-0.00021
353.6000	-0.00023
353.4000	-0.00021
353.2000	-0.00011
353.0000	9.00004E-005
352.8000	-0.00018
352.6000	-0.00026
352.4000	-0.00024
352.2000	-0.00016
352.0000	-0.00016
351.8000	-0.00027
351.6000	-0.00022
351.4000	-7.99997E-005
351.2000	5E-005
351.0000	-2.99998E-005
350.8000	-0.00013
350.6000	-0.00016
350.4000	-0.00038
350.2000	-0.00051
350.0000	-0.0002
